File: XRD/Experimental/PrO_Stick.csv
x	 y
28.2571	100
32.8322	35.0598
46.9935	49.4024
55.9259	39.8406
58.5403	9.56175
68.5621	7.96813
75.7516	13.9442
78.1481	9.56175
87.2985	9.96016
94.2702	9.96016
105.817	5.57769
113.007	9.96016
115.621	7.96813
126.078	3.98406
135.011	5.57769
138.279	5.9761