File: XRD/Experimental/YVO_stick.csv
x	 y
25	 99.1379
34	 69.8276
31.5556	 0.862069
19	 5.17241
35.6667	 13.7931
38.5556	 8.62069
40.6667	 8.62069
45.7778	 4.31034
48.3333	 7.75862
50	 50
51.2222	 16.3793
52.8889	 1.72414
55.1111	 0.862069
57.7778	 11.2069
59.7778	 1.72414
62.8889	 12.931
65.8889	 8.62069
67.4444	 2.58621
71.6667	 11.2069
74.4444	 10.3448
81	 4.31034
83.8889	 0.862069
85.3333	 8.62069
86.2222	 4.31034
87.5556	 0.862069
88	9.48276
75.3333	 3.44828
71.1111	 2.58621
82.5556	 2.58621